# VOLUME (A^3/CELL) 	 FREQS (CM^-1) 	 mode number:
220.793750 70.96 1
220.793750 91.79 2
220.793750 111.67 3
220.793750 114.45 4
220.793750 144.93 5
220.793750 151.70 6
220.793750 152.73 7
220.793750 153.38 8
220.793750 169.05 9
220.793750 172.31 10
220.793750 182.28 11
220.793750 184.98 12
220.793750 209.82 13
220.793750 211.12 14
220.793750 228.43 15
220.793750 262.88 16
220.793750 263.57 17
220.793750 269.34 18
220.793750 275.50 19
220.793750 283.92 20
220.793750 302.81 21
220.793750 318.16 22
220.793750 327.48 23
220.793750 327.51 24
220.793750 333.67 25
220.793750 343.65 26
220.793750 359.59 27
220.793750 359.99 28
220.793750 361.04 29
220.793750 362.95 30
220.793750 369.90 31
220.793750 388.41 32
220.793750 391.00 33
220.793750 706.15 34
220.793750 709.52 35
220.793750 717.05 36
220.793750 718.13 37
220.793750 732.14 38
220.793750 737.19 39
220.793750 738.25 40
220.793750 742.85 41
220.793750 865.90 42
220.793750 873.93 43
220.793750 874.87 44
220.793750 880.81 45
220.793750 1131.97 46
220.793750 1134.04 47
220.793750 1134.65 48
220.793750 1140.80 49
220.793750 1461.79 50
220.793750 1465.95 51
220.793750 1487.63 52
220.793750 1499.53 53
220.793750 1533.74 54
220.793750 1557.48 55
220.793750 1575.72 56
220.793750 1620.02 57
220.793750 60.42 58
220.793750 62.64 59
220.793750 88.45 60
220.793750 94.35 61
220.793750 96.16 62
220.793750 101.83 63
220.793750 134.72 64
220.793750 136.63 65
220.793750 147.02 66
220.793750 155.72 67
220.793750 157.54 68
220.793750 166.39 69
220.793750 168.46 70
220.793750 193.71 71
220.793750 193.81 72
220.793750 200.54 73
220.793750 215.19 74
220.793750 233.70 75
220.793750 247.93 76
220.793750 262.28 77
220.793750 266.72 78
220.793750 268.67 79
220.793750 275.07 80
220.793750 283.35 81
220.793750 316.66 82
220.793750 323.57 83
220.793750 327.70 84
220.793750 334.48 85
220.793750 354.13 86
220.793750 357.94 87
220.793750 366.94 88
220.793750 368.18 89
220.793750 380.00 90
220.793750 384.81 91
220.793750 404.59 92
220.793750 430.98 93
220.793750 708.96 94
220.793750 709.72 95
220.793750 716.07 96
220.793750 716.71 97
220.793750 734.76 98
220.793750 736.61 99
220.793750 739.16 100
220.793750 742.39 101
220.793750 872.55 102
220.793750 873.57 103
220.793750 876.22 104
220.793750 879.89 105
220.793750 1132.83 106
220.793750 1133.70 107
220.793750 1133.93 108
220.793750 1134.34 109
220.793750 1468.43 110
220.793750 1475.31 111
220.793750 1495.81 112
220.793750 1499.12 113
220.793750 1563.68 114
220.793750 1571.08 115
220.793750 1622.89 116
220.793750 1628.20 117
220.793750 60.42 118
220.793750 62.64 119
220.793750 88.45 120
220.793750 94.35 121
220.793750 96.16 122
220.793750 101.83 123
220.793750 134.72 124
220.793750 136.63 125
220.793750 147.02 126
220.793750 155.72 127
220.793750 157.54 128
220.793750 166.39 129
220.793750 168.46 130
220.793750 193.71 131
220.793750 193.81 132
220.793750 200.54 133
220.793750 215.19 134
220.793750 233.70 135
220.793750 247.93 136
220.793750 262.28 137
220.793750 266.72 138
220.793750 268.67 139
220.793750 275.07 140
220.793750 283.35 141
220.793750 316.66 142
220.793750 323.57 143
220.793750 327.70 144
220.793750 334.48 145
220.793750 354.13 146
220.793750 357.94 147
220.793750 366.94 148
220.793750 368.18 149
220.793750 380.00 150
220.793750 384.81 151
220.793750 404.59 152
220.793750 430.98 153
220.793750 708.96 154
220.793750 709.72 155
220.793750 716.07 156
220.793750 716.71 157
220.793750 734.76 158
220.793750 736.61 159
220.793750 739.16 160
220.793750 742.39 161
220.793750 872.55 162
220.793750 873.57 163
220.793750 876.22 164
220.793750 879.89 165
220.793750 1132.83 166
220.793750 1133.70 167
220.793750 1133.93 168
220.793750 1134.34 169
220.793750 1468.43 170
220.793750 1475.31 171
220.793750 1495.81 172
220.793750 1499.12 173
220.793750 1563.68 174
220.793750 1571.08 175
220.793750 1622.89 176
220.793750 1628.20 177
220.793750 26.09 178
220.793750 64.03 179
220.793750 86.33 180
220.793750 105.42 181
220.793750 113.31 182
220.793750 126.29 183
220.793750 126.82 184
220.793750 142.31 185
220.793750 142.99 186
220.793750 152.90 187
220.793750 154.34 188
220.793750 172.95 189
220.793750 181.99 190
220.793750 189.01 191
220.793750 197.95 192
220.793750 204.21 193
220.793750 216.13 194
220.793750 222.67 195
220.793750 246.77 196
220.793750 264.29 197
220.793750 270.38 198
220.793750 278.94 199
220.793750 296.00 200
220.793750 297.98 201
220.793750 314.90 202
220.793750 322.32 203
220.793750 323.84 204
220.793750 342.06 205
220.793750 344.24 206
220.793750 357.48 207
220.793750 361.59 208
220.793750 367.82 209
220.793750 372.60 210
220.793750 387.13 211
220.793750 388.46 212
220.793750 427.23 213
220.793750 707.86 214
220.793750 710.25 215
220.793750 716.79 216
220.793750 718.63 217
220.793750 734.13 218
220.793750 736.00 219
220.793750 737.89 220
220.793750 740.38 221
220.793750 866.75 222
220.793750 872.86 223
220.793750 874.44 224
220.793750 879.94 225
220.793750 1131.53 226
220.793750 1132.09 227
220.793750 1133.17 228
220.793750 1133.49 229
220.793750 1471.32 230
220.793750 1492.12 231
220.793750 1506.51 232
220.793750 1536.51 233
220.793750 1558.10 234
220.793750 1575.86 235
220.793750 1588.52 236
220.793750 1657.13 237
220.793750 52.93 238
220.793750 63.02 239
220.793750 83.39 240
220.793750 102.43 241
220.793750 111.49 242
220.793750 120.65 243
220.793750 139.05 244
220.793750 145.49 245
220.793750 147.79 246
220.793750 160.15 247
220.793750 165.58 248
220.793750 174.84 249
220.793750 191.36 250
220.793750 194.68 251
220.793750 197.24 252
220.793750 201.74 253
220.793750 208.96 254
220.793750 231.03 255
220.793750 241.64 256
220.793750 257.84 257
220.793750 264.57 258
220.793750 277.14 259
220.793750 283.11 260
220.793750 291.10 261
220.793750 309.11 262
220.793750 319.41 263
220.793750 333.62 264
220.793750 341.40 265
220.793750 348.40 266
220.793750 360.36 267
220.793750 363.71 268
220.793750 370.53 269
220.793750 373.85 270
220.793750 385.14 271
220.793750 392.33 272
220.793750 410.30 273
220.793750 710.09 274
220.793750 712.10 275
220.793750 716.91 276
220.793750 718.11 277
220.793750 733.92 278
220.793750 735.02 279
220.793750 737.95 280
220.793750 739.95 281
220.793750 870.97 282
220.793750 873.62 283
220.793750 875.38 284
220.793750 878.90 285
220.793750 1131.74 286
220.793750 1132.27 287
220.793750 1132.91 288
220.793750 1133.23 289
220.793750 1477.99 290
220.793750 1494.89 291
220.793750 1500.90 292
220.793750 1508.01 293
220.793750 1564.85 294
220.793750 1579.46 295
220.793750 1605.22 296
220.793750 1633.03 297
220.793750 52.93 298
220.793750 63.02 299
220.793750 83.39 300
220.793750 102.43 301
220.793750 111.49 302
220.793750 120.65 303
220.793750 139.05 304
220.793750 145.49 305
220.793750 147.79 306
220.793750 160.15 307
220.793750 165.58 308
220.793750 174.84 309
220.793750 191.36 310
220.793750 194.68 311
220.793750 197.24 312
220.793750 201.74 313
220.793750 208.96 314
220.793750 231.03 315
220.793750 241.64 316
220.793750 257.84 317
220.793750 264.57 318
220.793750 277.14 319
220.793750 283.11 320
220.793750 291.10 321
220.793750 309.11 322
220.793750 319.41 323
220.793750 333.62 324
220.793750 341.40 325
220.793750 348.40 326
220.793750 360.36 327
220.793750 363.71 328
220.793750 370.53 329
220.793750 373.85 330
220.793750 385.14 331
220.793750 392.33 332
220.793750 410.30 333
220.793750 710.09 334
220.793750 712.10 335
220.793750 716.91 336
220.793750 718.11 337
220.793750 733.92 338
220.793750 735.02 339
220.793750 737.95 340
220.793750 739.95 341
220.793750 870.97 342
220.793750 873.62 343
220.793750 875.38 344
220.793750 878.90 345
220.793750 1131.74 346
220.793750 1132.27 347
220.793750 1132.91 348
220.793750 1133.23 349
220.793750 1477.99 350
220.793750 1494.89 351
220.793750 1500.90 352
220.793750 1508.01 353
220.793750 1564.85 354
220.793750 1579.46 355
220.793750 1605.22 356
220.793750 1633.03 357
220.793750 62.73 358
220.793750 89.42 359
220.793750 91.86 360
220.793750 95.56 361
220.793750 125.91 362
220.793750 128.71 363
220.793750 132.19 364
220.793750 136.91 365
220.793750 160.52 366
220.793750 162.99 367
220.793750 174.54 368
220.793750 177.94 369
220.793750 196.50 370
220.793750 196.70 371
220.793750 212.55 372
220.793750 213.06 373
220.793750 226.26 374
220.793750 235.33 375
220.793750 238.43 376
220.793750 252.41 377
220.793750 271.02 378
220.793750 276.31 379
220.793750 282.10 380
220.793750 292.36 381
220.793750 312.46 382
220.793750 325.20 383
220.793750 331.08 384
220.793750 333.53 385
220.793750 353.45 386
220.793750 354.94 387
220.793750 366.45 388
220.793750 367.80 389
220.793750 370.38 390
220.793750 384.39 391
220.793750 389.27 392
220.793750 391.39 393
220.793750 711.43 394
220.793750 714.75 395
220.793750 715.33 396
220.793750 717.97 397
220.793750 732.27 398
220.793750 732.41 399
220.793750 737.49 400
220.793750 738.59 401
220.793750 868.71 402
220.793750 871.06 403
220.793750 875.68 404
220.793750 877.76 405
220.793750 1129.98 406
220.793750 1130.35 407
220.793750 1131.27 408
220.793750 1132.52 409
220.793750 1486.83 410
220.793750 1493.65 411
220.793750 1526.62 412
220.793750 1543.18 413
220.793750 1551.38 414
220.793750 1553.34 415
220.793750 1615.92 416
220.793750 1640.67 417
220.793750 67.92 418
220.793750 73.40 419
220.793750 82.02 420
220.793750 93.73 421
220.793750 131.24 422
220.793750 140.93 423
220.793750 149.02 424
220.793750 154.16 425
220.793750 160.24 426
220.793750 171.23 427
220.793750 176.15 428
220.793750 188.04 429
220.793750 189.86 430
220.793750 195.25 431
220.793750 202.54 432
220.793750 206.71 433
220.793750 217.52 434
220.793750 230.27 435
220.793750 238.01 436
220.793750 251.50 437
220.793750 256.05 438
220.793750 269.69 439
220.793750 278.16 440
220.793750 285.35 441
220.793750 323.17 442
220.793750 332.91 443
220.793750 336.95 444
220.793750 344.46 445
220.793750 351.15 446
220.793750 355.57 447
220.793750 357.80 448
220.793750 366.14 449
220.793750 371.04 450
220.793750 377.54 451
220.793750 390.90 452
220.793750 392.44 453
220.793750 712.43 454
220.793750 713.74 455
220.793750 715.91 456
220.793750 716.37 457
220.793750 732.74 458
220.793750 733.30 459
220.793750 737.43 460
220.793750 738.02 461
220.793750 871.34 462
220.793750 873.28 463
220.793750 874.66 464
220.793750 876.66 465
220.793750 1130.37 466
220.793750 1130.67 467
220.793750 1130.88 468
220.793750 1131.62 469
220.793750 1493.37 470
220.793750 1499.94 471
220.793750 1512.76 472
220.793750 1517.92 473
220.793750 1571.26 474
220.793750 1585.18 475
220.793750 1602.03 476
220.793750 1621.98 477
220.793750 67.92 478
220.793750 73.40 479
220.793750 82.02 480
220.793750 93.73 481
220.793750 131.24 482
220.793750 140.93 483
220.793750 149.02 484
220.793750 154.16 485
220.793750 160.24 486
220.793750 171.23 487
220.793750 176.15 488
220.793750 188.04 489
220.793750 189.86 490
220.793750 195.25 491
220.793750 202.54 492
220.793750 206.71 493
220.793750 217.52 494
220.793750 230.27 495
220.793750 238.01 496
220.793750 251.50 497
220.793750 256.05 498
220.793750 269.69 499
220.793750 278.16 500
220.793750 285.35 501
220.793750 323.17 502
220.793750 332.91 503
220.793750 336.95 504
220.793750 344.46 505
220.793750 351.15 506
220.793750 355.57 507
220.793750 357.80 508
220.793750 366.14 509
220.793750 371.04 510
220.793750 377.54 511
220.793750 390.90 512
220.793750 392.44 513
220.793750 712.43 514
220.793750 713.74 515
220.793750 715.91 516
220.793750 716.37 517
220.793750 732.74 518
220.793750 733.30 519
220.793750 737.43 520
220.793750 738.02 521
220.793750 871.34 522
220.793750 873.28 523
220.793750 874.66 524
220.793750 876.66 525
220.793750 1130.37 526
220.793750 1130.67 527
220.793750 1130.88 528
220.793750 1131.62 529
220.793750 1493.37 530
220.793750 1499.94 531
220.793750 1512.76 532
220.793750 1517.92 533
220.793750 1571.26 534
220.793750 1585.18 535
220.793750 1602.03 536
220.793750 1621.98 537
220.793750 62.73 538
220.793750 89.42 539
220.793750 91.86 540
220.793750 95.56 541
220.793750 125.91 542
220.793750 128.71 543
220.793750 132.19 544
220.793750 136.91 545
220.793750 160.52 546
220.793750 162.99 547
220.793750 174.54 548
220.793750 177.94 549
220.793750 196.50 550
220.793750 196.70 551
220.793750 212.55 552
220.793750 213.06 553
220.793750 226.26 554
220.793750 235.33 555
220.793750 238.43 556
220.793750 252.41 557
220.793750 271.02 558
220.793750 276.31 559
220.793750 282.10 560
220.793750 292.36 561
220.793750 312.46 562
220.793750 325.20 563
220.793750 331.08 564
220.793750 333.53 565
220.793750 353.45 566
220.793750 354.94 567
220.793750 366.45 568
220.793750 367.80 569
220.793750 370.38 570
220.793750 384.39 571
220.793750 389.27 572
220.793750 391.39 573
220.793750 711.43 574
220.793750 714.75 575
220.793750 715.33 576
220.793750 717.97 577
220.793750 732.27 578
220.793750 732.41 579
220.793750 737.49 580
220.793750 738.59 581
220.793750 868.71 582
220.793750 871.06 583
220.793750 875.68 584
220.793750 877.76 585
220.793750 1129.98 586
220.793750 1130.35 587
220.793750 1131.27 588
220.793750 1132.52 589
220.793750 1486.83 590
220.793750 1493.65 591
220.793750 1526.62 592
220.793750 1543.18 593
220.793750 1551.38 594
220.793750 1553.34 595
220.793750 1615.92 596
220.793750 1640.67 597
220.793750 67.92 598
220.793750 73.40 599
220.793750 82.02 600
220.793750 93.73 601
220.793750 131.24 602
220.793750 140.93 603
220.793750 149.02 604
220.793750 154.16 605
220.793750 160.24 606
220.793750 171.23 607
220.793750 176.15 608
220.793750 188.04 609
220.793750 189.86 610
220.793750 195.25 611
220.793750 202.54 612
220.793750 206.71 613
220.793750 217.52 614
220.793750 230.27 615
220.793750 238.01 616
220.793750 251.50 617
220.793750 256.05 618
220.793750 269.69 619
220.793750 278.16 620
220.793750 285.35 621
220.793750 323.17 622
220.793750 332.91 623
220.793750 336.95 624
220.793750 344.46 625
220.793750 351.15 626
220.793750 355.57 627
220.793750 357.80 628
220.793750 366.14 629
220.793750 371.04 630
220.793750 377.54 631
220.793750 390.90 632
220.793750 392.44 633
220.793750 712.43 634
220.793750 713.74 635
220.793750 715.91 636
220.793750 716.37 637
220.793750 732.74 638
220.793750 733.30 639
220.793750 737.43 640
220.793750 738.02 641
220.793750 871.34 642
220.793750 873.28 643
220.793750 874.66 644
220.793750 876.66 645
220.793750 1130.37 646
220.793750 1130.67 647
220.793750 1130.88 648
220.793750 1131.62 649
220.793750 1493.37 650
220.793750 1499.94 651
220.793750 1512.76 652
220.793750 1517.92 653
220.793750 1571.26 654
220.793750 1585.18 655
220.793750 1602.03 656
220.793750 1621.98 657
220.793750 67.92 658
220.793750 73.40 659
220.793750 82.02 660
220.793750 93.73 661
220.793750 131.24 662
220.793750 140.93 663
220.793750 149.02 664
220.793750 154.16 665
220.793750 160.24 666
220.793750 171.23 667
220.793750 176.15 668
220.793750 188.04 669
220.793750 189.86 670
220.793750 195.25 671
220.793750 202.54 672
220.793750 206.71 673
220.793750 217.52 674
220.793750 230.27 675
220.793750 238.01 676
220.793750 251.50 677
220.793750 256.05 678
220.793750 269.69 679
220.793750 278.16 680
220.793750 285.35 681
220.793750 323.17 682
220.793750 332.91 683
220.793750 336.95 684
220.793750 344.46 685
220.793750 351.15 686
220.793750 355.57 687
220.793750 357.80 688
220.793750 366.14 689
220.793750 371.04 690
220.793750 377.54 691
220.793750 390.90 692
220.793750 392.44 693
220.793750 712.43 694
220.793750 713.74 695
220.793750 715.91 696
220.793750 716.37 697
220.793750 732.74 698
220.793750 733.30 699
220.793750 737.43 700
220.793750 738.02 701
220.793750 871.34 702
220.793750 873.28 703
220.793750 874.66 704
220.793750 876.66 705
220.793750 1130.37 706
220.793750 1130.67 707
220.793750 1130.88 708
220.793750 1131.62 709
220.793750 1493.37 710
220.793750 1499.94 711
220.793750 1512.76 712
220.793750 1517.92 713
220.793750 1571.26 714
220.793750 1585.18 715
220.793750 1602.03 716
220.793750 1621.98 717
220.793750 26.09 718
220.793750 64.03 719
220.793750 86.33 720
220.793750 105.42 721
220.793750 113.31 722
220.793750 126.29 723
220.793750 126.82 724
220.793750 142.31 725
220.793750 142.99 726
220.793750 152.90 727
220.793750 154.34 728
220.793750 172.95 729
220.793750 181.99 730
220.793750 189.01 731
220.793750 197.95 732
220.793750 204.21 733
220.793750 216.13 734
220.793750 222.67 735
220.793750 246.77 736
220.793750 264.29 737
220.793750 270.38 738
220.793750 278.94 739
220.793750 296.00 740
220.793750 297.98 741
220.793750 314.90 742
220.793750 322.32 743
220.793750 323.84 744
220.793750 342.06 745
220.793750 344.24 746
220.793750 357.48 747
220.793750 361.59 748
220.793750 367.82 749
220.793750 372.60 750
220.793750 387.13 751
220.793750 388.46 752
220.793750 427.23 753
220.793750 707.86 754
220.793750 710.25 755
220.793750 716.79 756
220.793750 718.63 757
220.793750 734.13 758
220.793750 736.00 759
220.793750 737.89 760
220.793750 740.38 761
220.793750 866.75 762
220.793750 872.86 763
220.793750 874.44 764
220.793750 879.94 765
220.793750 1131.53 766
220.793750 1132.09 767
220.793750 1133.17 768
220.793750 1133.49 769
220.793750 1471.32 770
220.793750 1492.12 771
220.793750 1506.51 772
220.793750 1536.51 773
220.793750 1558.10 774
220.793750 1575.86 775
220.793750 1588.52 776
220.793750 1657.13 777
220.793750 52.93 778
220.793750 63.02 779
220.793750 83.39 780
220.793750 102.43 781
220.793750 111.49 782
220.793750 120.65 783
220.793750 139.05 784
220.793750 145.49 785
220.793750 147.79 786
220.793750 160.15 787
220.793750 165.58 788
220.793750 174.84 789
220.793750 191.36 790
220.793750 194.68 791
220.793750 197.24 792
220.793750 201.74 793
220.793750 208.96 794
220.793750 231.03 795
220.793750 241.64 796
220.793750 257.84 797
220.793750 264.57 798
220.793750 277.14 799
220.793750 283.11 800
220.793750 291.10 801
220.793750 309.11 802
220.793750 319.41 803
220.793750 333.62 804
220.793750 341.40 805
220.793750 348.40 806
220.793750 360.36 807
220.793750 363.71 808
220.793750 370.53 809
220.793750 373.85 810
220.793750 385.14 811
220.793750 392.33 812
220.793750 410.30 813
220.793750 710.09 814
220.793750 712.10 815
220.793750 716.91 816
220.793750 718.11 817
220.793750 733.92 818
220.793750 735.02 819
220.793750 737.95 820
220.793750 739.95 821
220.793750 870.97 822
220.793750 873.62 823
220.793750 875.38 824
220.793750 878.90 825
220.793750 1131.74 826
220.793750 1132.27 827
220.793750 1132.91 828
220.793750 1133.23 829
220.793750 1477.99 830
220.793750 1494.89 831
220.793750 1500.90 832
220.793750 1508.01 833
220.793750 1564.85 834
220.793750 1579.46 835
220.793750 1605.22 836
220.793750 1633.03 837
220.793750 52.93 838
220.793750 63.02 839
220.793750 83.39 840
220.793750 102.43 841
220.793750 111.49 842
220.793750 120.65 843
220.793750 139.05 844
220.793750 145.49 845
220.793750 147.79 846
220.793750 160.15 847
220.793750 165.58 848
220.793750 174.84 849
220.793750 191.36 850
220.793750 194.68 851
220.793750 197.24 852
220.793750 201.74 853
220.793750 208.96 854
220.793750 231.03 855
220.793750 241.64 856
220.793750 257.84 857
220.793750 264.57 858
220.793750 277.14 859
220.793750 283.11 860
220.793750 291.10 861
220.793750 309.11 862
220.793750 319.41 863
220.793750 333.62 864
220.793750 341.40 865
220.793750 348.40 866
220.793750 360.36 867
220.793750 363.71 868
220.793750 370.53 869
220.793750 373.85 870
220.793750 385.14 871
220.793750 392.33 872
220.793750 410.30 873
220.793750 710.09 874
220.793750 712.10 875
220.793750 716.91 876
220.793750 718.11 877
220.793750 733.92 878
220.793750 735.02 879
220.793750 737.95 880
220.793750 739.95 881
220.793750 870.97 882
220.793750 873.62 883
220.793750 875.38 884
220.793750 878.90 885
220.793750 1131.74 886
220.793750 1132.27 887
220.793750 1132.91 888
220.793750 1133.23 889
220.793750 1477.99 890
220.793750 1494.89 891
220.793750 1500.90 892
220.793750 1508.01 893
220.793750 1564.85 894
220.793750 1579.46 895
220.793750 1605.22 896
220.793750 1633.03 897
220.793750 -22.12 898
220.793750 44.83 899
220.793750 81.07 900
220.793750 85.32 901
220.793750 95.33 902
220.793750 117.62 903
220.793750 131.32 904
220.793750 138.56 905
220.793750 145.89 906
